Name: 5-Methoxy-N_N-dimethyltryptamine
CAS: 1019-45-0
MW: 218
Formula: C13H18N2O
Synonym: C08309
Synonym: Indole, 3-(2-(N,N-dimethylamino)ethyl)-5-methoxy-, 5-Methoxy-N,N-dimethyltryptamine
Comment: XX003504
Structure: 0D0A202049534953484F53543033323430343233313932442031202020312E30303030302020202020302E30303030302020373335320D0A0D0A2031362031372020302020202020302020302020202020202020202020203939392056323030300D0A20202020302E3034343820202020302E3439333120202020302E303030302043202020302020302020302020302020302020302020202020202020202020302020302020300D0A20202020302E3034383320202020312E3332303720202020302E303030302043202020302020302020302020302020302020302020202020202020202020302020302020300D0A20202020302E3832373620202020302E3233343520202020302E303030302043202020302020302020302020302020302020302020202020202020202020302020302020300D0A2020202D302E3636393020202020302E3037393320202020302E303030302043202020302020302020302020302020302020302020202020202020202020302020302020300D0A20202020302E3833373920202020312E3536393020202020302E30303030204E202020302020302020302020302020302020302020202020202020202020302020302020300D0A2020202D302E3636393020202020312E3733373920202020302E303030302043202020302020302020302020302020302020302020202020202020202020302020302020300D0A20202020312E3331373220202020302E3930303020202020302E303030302043202020302020302020302020302020302020302020202020202020202020302020302020300D0A20202020312E323337392020202D302E3437393320202020302E303030302043202020302020302020302020302020302020302020202020202020202020302020302020300D0A2020202D312E3338393720202020302E3439333120202020302E303030302043202020302020302020302020302020302020302020202020202020202020302020302020300D0A2020202D312E3338393720202020312E3332303720202020302E303030302043202020302020302020302020302020302020302020202020202020202020302020302020300D0A20202020302E383237362020202D312E3139363620202020302E303030302043202020302020302020302020302020302020302020202020202020202020302020302020300D0A2020202D322E3130333420202020302E3037393320202020302E30303030204F202020302020302020302020302020302020302020202020202020202020302020302020300D0A20202020312E323431342020202D312E3931333820202020302E30303030204E202020302020302020332020302020302020302020202020202020202020302020302020300D0A2020202D322E3832303720202020302E3438363220202020302E303030302043202020302020302020302020302020302020302020202020202020202020302020302020300D0A20202020302E383331302020202D322E3633313020202020302E303030302043202020302020302020302020302020302020302020202020202020202020302020302020300D0A20202020312E383237362020202D322E3439363620202020302E303030302043202020302020302020302020302020302020302020202020202020202020302020302020300D0A2020312020322020322020302020202020302020300D0A2020312020332020312020302020202020302020300D0A2020312020342020312020302020202020302020300D0A2020322020352020312020302020202020302020300D0A2020322020362020312020302020202020302020300D0A2020332020372020322020302020202020302020300D0A2020332020382020312020302020202020302020300D0A2020342020392020322020302020202020302020300D0A2020362031302020322020302020202020302020300D0A2020382031312020312020302020202020302020300D0A2020392031322020312020302020202020302020300D0A2031312031332020312020302020202020302020300D0A2031322031342020312020302020202020302020300D0A2031332031352020312020302020202020302020300D0A2031332031362020312020302020202020302020300D0A2020352020372020312020302020202020302020300D0A2020392031302020312020302020202020302020300D0A4D2020454E440D0A
Contributor: Kakazu Y, Horai H, Institute for Advanced Biosciences, Keio Univ.
InstType: TQ
InstName: API3000, Applied Biosystems
IoniMethod: ESI
IonPolarity: pos
MSMS: 2
ColEnergy: 30
Date: 2006-12-21 14:48:36+02:00
Num: 61
45.800 1 56.000 1 58.100 999 61.200 1 69.200 1 71.200 1 72.000 1 79.200 1 81.300 1 83.400 1 
85.900 1 86.700 1 90.900 3 94.900 1 98.300 1 99.800 1 102.900 1 104.000 1 105.200 1 107.000 1 
109.100 1 111.700 1 112.300 1 115.300 7 116.100 1 117.200 13 118.100 3 118.900 1 120.000 1 120.900 1 
122.700 1 127.300 1 128.300 1 128.800 2 130.000 4 131.100 28 132.100 2 133.200 3 133.800 1 135.300 1 
140.400 1 142.300 14 143.100 57 144.000 17 145.200 1 146.200 5 147.000 9 148.200 14 156.400 1 157.300 1 
157.800 2 159.100 167 160.400 1 162.300 1 164.200 1 173.700 17 174.200 734 175.400 1 185.000 1 203.000 1 
219.400 1 
