Name: 5-Methoxy-N_N-dimethyltryptamine
CAS: 1019-45-0
MW: 218
Formula: C13H18N2O
Synonym: C08309
Synonym: Indole, 3-(2-(N,N-dimethylamino)ethyl)-5-methoxy-, 5-Methoxy-N,N-dimethyltryptamine
Comment: XX007969
Structure: 0D0A202049534953484F53543033323430343233313932442031202020312E30303030302020202020302E30303030302020373335320D0A0D0A2031362031372020302020202020302020302020202020202020202020203939392056323030300D0A20202020302E3034343820202020302E3439333120202020302E303030302043202020302020302020302020302020302020302020202020202020202020302020302020300D0A20202020302E3034383320202020312E3332303720202020302E303030302043202020302020302020302020302020302020302020202020202020202020302020302020300D0A20202020302E3832373620202020302E3233343520202020302E303030302043202020302020302020302020302020302020302020202020202020202020302020302020300D0A2020202D302E3636393020202020302E3037393320202020302E303030302043202020302020302020302020302020302020302020202020202020202020302020302020300D0A20202020302E3833373920202020312E3536393020202020302E30303030204E202020302020302020302020302020302020302020202020202020202020302020302020300D0A2020202D302E3636393020202020312E3733373920202020302E303030302043202020302020302020302020302020302020302020202020202020202020302020302020300D0A20202020312E3331373220202020302E3930303020202020302E303030302043202020302020302020302020302020302020302020202020202020202020302020302020300D0A20202020312E323337392020202D302E3437393320202020302E303030302043202020302020302020302020302020302020302020202020202020202020302020302020300D0A2020202D312E3338393720202020302E3439333120202020302E303030302043202020302020302020302020302020302020302020202020202020202020302020302020300D0A2020202D312E3338393720202020312E3332303720202020302E303030302043202020302020302020302020302020302020302020202020202020202020302020302020300D0A20202020302E383237362020202D312E3139363620202020302E303030302043202020302020302020302020302020302020302020202020202020202020302020302020300D0A2020202D322E3130333420202020302E3037393320202020302E30303030204F202020302020302020302020302020302020302020202020202020202020302020302020300D0A20202020312E323431342020202D312E3931333820202020302E30303030204E202020302020302020332020302020302020302020202020202020202020302020302020300D0A2020202D322E3832303720202020302E3438363220202020302E303030302043202020302020302020302020302020302020302020202020202020202020302020302020300D0A20202020302E383331302020202D322E3633313020202020302E303030302043202020302020302020302020302020302020302020202020202020202020302020302020300D0A20202020312E383237362020202D322E3439363620202020302E303030302043202020302020302020302020302020302020302020202020202020202020302020302020300D0A2020312020322020322020302020202020302020300D0A2020312020332020312020302020202020302020300D0A2020312020342020312020302020202020302020300D0A2020322020352020312020302020202020302020300D0A2020322020362020312020302020202020302020300D0A2020332020372020322020302020202020302020300D0A2020332020382020312020302020202020302020300D0A2020342020392020322020302020202020302020300D0A2020362031302020322020302020202020302020300D0A2020382031312020312020302020202020302020300D0A2020392031322020312020302020202020302020300D0A2031312031332020312020302020202020302020300D0A2031322031342020312020302020202020302020300D0A2031332031352020312020302020202020302020300D0A2031332031362020312020302020202020302020300D0A2020352020372020312020302020202020302020300D0A2020392031302020312020302020202020302020300D0A4D2020454E440D0A
Contributor: Kakazu Y, Horai H, Institute for Advanced Biosciences, Keio Univ.
InstType: TOF
InstName: Qstar, Applied Biosystems
IoniMethod: ESI
IonPolarity: pos
MSMS: 2
ColEnergy: 30
Date: 2006-12-21 14:48:36+02:00
Num: 433
28.0211 1 29.0410 1 30.0181 1 30.0376 4 39.0262 1 41.0253 1 41.0396 1 42.0089 2 42.0176 2 42.0349 30 
43.0218 1 43.0422 13 44.0496 1 45.0328 1 45.0358 1 46.0631 1 55.0581 1 55.0614 1 56.0200 1 56.0367 1 
56.05 5 57.0642 1 57.7792 1 57.8199 1 57.9621 1 57.9756 1 57.9892 1 58.04 35 58.0638 999 58.1147 1 
58.1418 5 58.1554 4 58.169 3 58.1792 2 58.1859 1 58.1995 1 58.2097 2 58.2199 2 58.2335 1 58.2403 1 
58.2471 1 58.2573 1 58.2675 1 58.2743 1 58.2912 1 58.298 1 58.3048 1 58.3116 1 58.3184 1 58.3286 1 
58.349 1 58.3592 1 58.3694 1 58.3762 1 58.3864 1 58.3932 1 58.4068 2 58.4272 5 58.4443 2 58.4613 2 
58.4749 2 58.4817 2 58.4919 1 58.4987 1 58.5072 1 58.5157 1 58.543 2 58.5532 2 58.5702 2 58.5873 1 
58.5941 1 58.6009 1 58.6111 1 58.6179 1 58.6281 1 58.635 1 58.6418 1 58.652 2 58.6622 2 58.6725 2 
58.6793 2 58.6895 1 58.7134 1 58.7202 1 58.7338 1 58.7475 1 58.7611 1 58.768 1 58.7748 1 58.785 1 
58.7918 1 58.8021 1 58.8123 1 58.8345 1 58.8465 1 58.8533 1 58.8601 1 58.8669 1 58.8738 1 58.8874 1 
58.8943 1 58.9045 1 58.9233 1 58.9318 1 58.9455 1 58.9524 1 58.9592 1 58.9694 1 58.9763 1 58.9934 1 
59.0036 1 59.007 1 59.0207 1 59.0378 1 59.0481 1 59.0566 1 59.072 1 59.0857 1 59.0960 1 59.1028 1 
59.1097 1 59.1268 1 59.1336 1 59.1439 1 59.1507 1 59.1644 1 59.1781 1 59.1850 1 59.1952 1 59.1987 1 
59.2124 1 59.2226 1 59.2329 1 59.2500 1 59.2603 1 59.2706 1 59.2946 1 59.3049 1 59.3186 1 59.3323 1 
59.3460 1 59.3597 1 59.3632 1 59.3837 1 59.394 1 59.4112 1 59.4455 1 59.4558 1 59.4832 1 59.5038 1 
59.5313 1 59.5519 1 59.5657 1 59.5897 1 59.6000 1 59.6516 1 59.6584 1 59.7410 1 59.9338 1 67.0525 1 
69.0720 1 70.0743 1 72.0799 1 77.0389 1 77.0428 1 78.0501 1 79.056 1 80.0485 1 81.0511 1 81.0632 1 
91.0552 5 98.9756 1 98.98 1 103.0551 1 104.0470 1 104.0606 1 104.0651 1 105.0573 1 105.0664 1 107.0466 1 
108.0574 1 115.0564 10 115.0850 1 116.0515 1 116.0611 1 117.0703 12 118.0644 4 119.0822 1 121.0623 1 121.1015 1 
127.0554 3 128.0557 1 128.0658 1 129.0701 3 130.0682 11 130.1088 1 131.0089 1 131.0752 53 131.1975 1 132.0605 3 
132.081 1 133.0495 5 133.1008 1 134.0628 1 140.0548 1 141.0574 1 142.0370 1 142.0635 20 142.106 1 142.1219 1 
142.8763 1 143.0147 1 143.0732 91 143.1904 1 143.2064 1 143.2383 1 143.6328 1 144.0171 1 144.0331 1 144.0812 29 
144.1133 1 144.1507 1 144.2095 1 145.0606 2 145.0713 2 145.0927 1 146.06205 1 146.097 5 147.0778 12 147.1156 1 
147.1264 1 147.1479 1 148.0781 11 149.0328 1 154.0681 1 155.0807 1 156.0745 1 156.08 1 157.0435 1 157.0658 1 
157.0937 1 158.0603 17 158.0995 1 158.1218 1 158.273 1 158.2898 1 158.3010 1 158.8447 1 158.8783 1 158.8895 1 
158.9176 1 158.9232 1 158.9456 1 158.9512 1 158.9681 1 158.9905 1 159.0691 496 159.187 1 159.2039 2 159.2263 1 
159.2376 1 159.26 1 159.2713 1 159.2937 1 159.3106 1 159.3387 1 159.3499 1 159.3668 1 159.3780 1 159.3949 1 
159.4117 1 159.4454 1 159.4567 1 159.4792 1 159.4960 1 159.5860 1 159.6197 1 159.6647 1 159.6872 1 159.7041 1 
159.7435 1 159.7659 1 159.7772 1 159.7885 1 159.8053 1 159.8166 1 159.8335 1 159.8504 1 159.8729 1 159.8841 1 
159.8954 1 159.9123 1 159.9235 1 159.9404 1 159.9573 1 159.9629 1 159.9854 1 159.9911 1 160.0079 1 160.0136 1 
160.0305 1 160.0474 1 160.0755 2 160.1037 1 160.1206 1 160.1431 1 160.1544 1 160.1713 1 160.1994 1 160.2107 1 
160.2332 1 160.3628 1 160.6561 1 160.6786 1 160.6956 1 160.7181 1 160.7407 1 160.7689 1 160.7802 1 160.7971 1 
160.8084 1 160.8310 1 160.8479 1 160.8649 1 160.8705 1 160.8875 1 160.9044 1 160.927 1 160.9552 1 160.9834 1 
161.0795 1 161.1021 1 161.1190 1 161.136 1 162.0922 1 170.1167 1 172.0758 1 173.0844 10 173.1371 1 173.2191 1 
173.2543 1 173.8171 1 173.8465 2 173.8876 1 173.8993 1 173.9257 1 173.9463 1 173.9756 1 173.9991 1 174.0108 2 
174.093 902 174.2046 2 174.2223 3 174.2399 3 174.2751 2 174.2869 1 174.3163 1 174.3457 1 174.3633 1 174.3809 1 
174.3927 1 174.41325 1 174.4397 1 174.46025 1 174.475 1 174.4867 1 174.5279 1 174.5396 1 174.5514 1 174.5632 1 
174.5749 1 174.5926 1 174.6102 1 174.6279 1 174.6455 1 174.669 1 174.7102 2 174.722 2 174.7661 1 174.7985 1 
174.822 1 174.8456 1 174.8573 1 174.8691 1 174.8926 1 174.9044 1 174.9162 1 174.9279 1 174.9397 1 174.9633 1 
174.9751 1 174.9986 1 175.0104 1 175.0222 1 175.0457 1 175.0634 1 175.0987 2 175.1282 1 175.1458 1 175.1753 1 
175.1871 1 175.2106 1 175.2283 1 175.246 1 175.2578 1 175.2813 1 175.299 1 175.3226 1 175.3462 1 175.3756 1 
175.3815 1 175.4110 1 175.4228 1 175.4346 1 175.4758 1 175.5112 1 175.5230 1 175.5702 1 175.5820 1 175.8416 1 
175.8652 1 175.9242 1 176.0659 1 176.0896 1 187.1125 1 188.1306 1 189.0781 1 190.0892 1 203.0928 1 203.1436 3 
204.1090 1 204.1217 1 219.1741 2 
