Name: 5-Methoxy-N_N-dimethyltryptamine
CAS: 1019-45-0
MW: 218
Formula: C13H18N2O
Synonym: C08309
Synonym: Indole, 3-(2-(N,N-dimethylamino)ethyl)-5-methoxy-, 5-Methoxy-N,N-dimethyltryptamine
Comment: XX003505
Structure: 0D0A202049534953484F53543033323430343233313932442031202020312E30303030302020202020302E30303030302020373335320D0A0D0A2031362031372020302020202020302020302020202020202020202020203939392056323030300D0A20202020302E3034343820202020302E3439333120202020302E303030302043202020302020302020302020302020302020302020202020202020202020302020302020300D0A20202020302E3034383320202020312E3332303720202020302E303030302043202020302020302020302020302020302020302020202020202020202020302020302020300D0A20202020302E3832373620202020302E3233343520202020302E303030302043202020302020302020302020302020302020302020202020202020202020302020302020300D0A2020202D302E3636393020202020302E3037393320202020302E303030302043202020302020302020302020302020302020302020202020202020202020302020302020300D0A20202020302E3833373920202020312E3536393020202020302E30303030204E202020302020302020302020302020302020302020202020202020202020302020302020300D0A2020202D302E3636393020202020312E3733373920202020302E303030302043202020302020302020302020302020302020302020202020202020202020302020302020300D0A20202020312E3331373220202020302E3930303020202020302E303030302043202020302020302020302020302020302020302020202020202020202020302020302020300D0A20202020312E323337392020202D302E3437393320202020302E303030302043202020302020302020302020302020302020302020202020202020202020302020302020300D0A2020202D312E3338393720202020302E3439333120202020302E303030302043202020302020302020302020302020302020302020202020202020202020302020302020300D0A2020202D312E3338393720202020312E3332303720202020302E303030302043202020302020302020302020302020302020302020202020202020202020302020302020300D0A20202020302E383237362020202D312E3139363620202020302E303030302043202020302020302020302020302020302020302020202020202020202020302020302020300D0A2020202D322E3130333420202020302E3037393320202020302E30303030204F202020302020302020302020302020302020302020202020202020202020302020302020300D0A20202020312E323431342020202D312E3931333820202020302E30303030204E202020302020302020332020302020302020302020202020202020202020302020302020300D0A2020202D322E3832303720202020302E3438363220202020302E303030302043202020302020302020302020302020302020302020202020202020202020302020302020300D0A20202020302E383331302020202D322E3633313020202020302E303030302043202020302020302020302020302020302020302020202020202020202020302020302020300D0A20202020312E383237362020202D322E3439363620202020302E303030302043202020302020302020302020302020302020302020202020202020202020302020302020300D0A2020312020322020322020302020202020302020300D0A2020312020332020312020302020202020302020300D0A2020312020342020312020302020202020302020300D0A2020322020352020312020302020202020302020300D0A2020322020362020312020302020202020302020300D0A2020332020372020322020302020202020302020300D0A2020332020382020312020302020202020302020300D0A2020342020392020322020302020202020302020300D0A2020362031302020322020302020202020302020300D0A2020382031312020312020302020202020302020300D0A2020392031322020312020302020202020302020300D0A2031312031332020312020302020202020302020300D0A2031322031342020312020302020202020302020300D0A2031332031352020312020302020202020302020300D0A2031332031362020312020302020202020302020300D0A2020352020372020312020302020202020302020300D0A2020392031302020312020302020202020302020300D0A4D2020454E440D0A
Contributor: Kakazu Y, Horai H, Institute for Advanced Biosciences, Keio Univ.
InstType: TQ
InstName: API3000, Applied Biosystems
IoniMethod: ESI
IonPolarity: pos
MSMS: 2
ColEnergy: 40
Date: 2006-12-21 14:48:36+02:00
Num: 63
42.100 1 43.200 1 46.200 1 56.300 1 58.100 999 66.600 1 69.000 1 72.200 1 74.300 1 77.000 1 
77.900 1 79.000 1 80.000 1 81.100 1 83.300 1 88.200 1 89.900 1 91.000 16 93.000 1 93.300 1 
95.300 1 95.500 1 101.300 1 102.500 1 102.900 1 104.100 2 105.000 6 106.200 1 107.000 3 108.000 2 
113.900 1 115.300 30 116.200 6 117.200 31 118.000 5 119.200 2 120.800 1 127.100 5 127.900 3 129.200 4 
130.200 72 131.000 191 132.100 8 133.000 7 134.100 1 140.100 1 142.100 28 142.900 153 144.100 20 145.300 2 
146.200 4 147.000 12 148.300 4 156.000 1 156.900 1 158.200 16 159.100 287 160.200 1 162.000 1 170.400 1 
172.200 1 173.700 8 174.100 135 
